time (s)	coil I (A)	last det (V)	int current (uC)
1225.188563	1.064561	0.394120	466.277527
1225.189471	1.553221	0.394120	1876.602539
1225.190368	1.548069	0.394120	3265.220215
1225.191352	1.507295	0.394120	4748.398437
1225.192288	1.466990	0.394120	6121.500977
1225.193230	1.428684	0.394120	7467.321289
1225.194127	1.391949	0.394120	8715.900391
1225.195110	1.355464	0.394120	10048.321289
1225.196053	1.321344	0.394120	11294.348633
1225.196954	1.288385	0.394120	12455.183594
1225.197913	1.151682	0.394120	13559.646484
1225.198854	0.184838	0.394120	13733.579102
1225.199779	0.085635	0.394120	13812.791016
1225.200686	0.085649	0.394120	13890.474609
1225.201632	0.085693	0.394120	13971.541016
1225.202587	0.085701	0.394120	14053.384766
1225.203495	0.085770	0.394120	14131.264648
1225.204422	0.085690	0.394120	14210.699219
1225.205381	0.085679	0.394120	14292.865234
1225.206305	0.085693	0.394120	14372.045898
1225.207196	0.085734	0.394120	14448.434570
1226.220392	1.086529	0.378712	490.024811
1226.221330	1.555019	0.378712	1948.633057
1226.222227	1.545930	0.378712	3335.332520
1226.223200	1.505695	0.378712	4800.373535
1226.224128	1.465880	0.378712	6160.710449
1226.225046	1.428428	0.378712	7472.006836
1226.225943	1.391770	0.378712	8720.424805
1226.226930	1.354885	0.378712	10057.696289
1226.227855	1.321113	0.378712	11279.726562
1226.228770	1.288209	0.378712	12458.437500
1226.229667	1.162463	0.378712	13501.166992
1226.230654	0.188943	0.378712	13687.653320
1226.231566	0.085580	0.378712	13765.702148
1226.232460	0.085701	0.378712	13842.318359
1226.233434	0.085679	0.378712	13925.769531
1226.234347	0.085745	0.378712	14004.054687
1226.235257	0.085774	0.378712	14082.109375
1226.236151	0.085770	0.378712	14158.788086
1226.237117	0.085690	0.378712	14241.564453
1226.238029	0.085701	0.378712	14319.723633
1226.238923	0.085701	0.378712	14396.339844
1227.277899	1.066597	0.392046	466.102783
1227.278840	1.551471	0.392046	1926.036987
1227.279789	1.543579	0.392046	3390.893555
1227.280746	1.503589	0.392046	4829.828125
1227.281659	1.464730	0.392046	6167.126953
1227.282596	1.425915	0.392046	7503.209961
1227.283562	1.388115	0.392046	8844.128906
1227.284497	1.352827	0.392046	10109.022461
1227.285393	1.319528	0.392046	11291.319336
1227.286394	1.284327	0.392046	12576.930664
1227.287316	1.105994	0.392046	13596.657227
1227.288218	0.166282	0.392046	13746.643555
1227.289105	0.085660	0.392046	13822.624023
1227.290067	0.085708	0.392046	13905.075195
1227.290992	0.085708	0.392046	13984.355469
1227.291894	0.085796	0.392046	14061.743164
1227.292852	0.085734	0.392046	14143.875977
1227.293773	0.085657	0.392046	14222.765625
1227.294687	0.085668	0.392046	14301.066406
1227.295575	0.085759	0.392046	14377.220703
1227.296555	0.085712	0.392046	14461.217773
1228.309727	1.069585	0.384642	475.965302
1228.310620	1.550775	0.384642	1860.807617
1228.311615	1.542825	0.384642	3395.918213
1228.312536	1.503776	0.384642	4780.895508
1228.313446	1.465042	0.384642	6114.083008
1228.314371	1.427062	0.384642	7434.115234
1228.315338	1.388892	0.384642	8777.173828
1228.316275	1.353464	0.384642	10045.370117
1228.317181	1.320476	0.384642	11241.721680
1228.318143	1.286210	0.384642	12479.055664
1228.319101	1.134928	0.384642	13566.316406
1228.320016	0.175638	0.384642	13727.025391
1228.320938	0.085635	0.384642	13805.980469
1228.321894	0.085752	0.384642	13887.958984
1228.322827	0.085778	0.384642	13967.989258
1228.323717	0.085682	0.384642	14044.246094
1228.324665	0.085653	0.384642	14125.445312
1228.325613	0.085686	0.384642	14206.675781
1228.326548	0.085704	0.384642	14286.809570
1228.327448	0.085671	0.384642	14363.914062
1228.328411	0.085708	0.384642	14446.451172
1229.368292	1.080934	0.391288	496.148621
1229.369187	1.551731	0.391288	1884.947754
1229.370171	1.544132	0.391288	3404.373779
1229.371089	1.505826	0.391288	4786.722656
1229.372015	1.466649	0.391288	6144.839844
1229.372918	1.429417	0.391288	7435.603027
1229.373898	1.390382	0.391288	8798.177734
1229.374821	1.355555	0.391288	10049.355469
1229.375720	1.322541	0.391288	11238.320312
1229.376653	1.289290	0.391288	12441.227539
1229.377611	1.170710	0.391288	13562.768555
1229.378515	0.203145	0.391288	13746.411133
1229.379405	0.085682	0.391288	13822.667969
1229.380362	0.085675	0.391288	13904.659180
1229.381281	0.085682	0.391288	13983.401367
1229.382198	0.085701	0.391288	14061.989258
1229.383099	0.085734	0.391288	14139.235352
1229.384081	0.085642	0.391288	14223.335937
1229.384994	0.085649	0.391288	14301.534180
1229.385926	0.085737	0.391288	14381.441406
1229.386812	0.085653	0.391288	14457.330078
1230.398798	1.077579	0.384851	473.057343
1230.399780	1.556854	0.384851	2001.888184
1230.400710	1.543594	0.384851	3437.430420
1230.401622	1.505738	0.384851	4810.664062
1230.402575	1.465371	0.384851	6207.162598
1230.403508	1.426849	0.384851	7538.413086
1230.404430	1.390225	0.384851	8820.200195
1230.405328	1.355753	0.384851	10037.666016
1230.406327	1.319689	0.384851	11356.035156
1230.407249	1.286503	0.384851	12542.190430
1230.408155	1.157468	0.384851	13590.856445
1230.409107	0.191071	0.384851	13772.755859
1230.410032	0.085704	0.384851	13852.032227
1230.410934	0.085734	0.384851	13929.364258
1230.411820	0.085752	0.384851	14005.340820
1230.412800	0.085778	0.384851	14089.403320
1230.413724	0.085778	0.384851	14168.662109
1230.414633	0.085752	0.384851	14246.610352
1230.415519	0.085708	0.384851	14322.547852
1230.416515	0.085792	0.384851	14407.997070
1230.417441	0.085763	0.384851	14487.413086
1231.458564	1.091847	0.395619	522.994629
1231.459475	1.555598	0.395619	1940.144531
1231.460378	1.545612	0.395619	3335.831543
1231.461308	1.507053	0.395619	4737.391113
1231.462273	1.465869	0.395619	6151.955078
1231.463207	1.427432	0.395619	7485.176270
1231.464112	1.391342	0.395619	8744.339844
1231.465071	1.355211	0.395619	10043.987305
1231.466010	1.320432	0.395619	11283.873047
1231.466948	1.287004	0.395619	12491.083008
1231.467844	1.160614	0.395619	13530.993164
1231.468815	0.184464	0.395619	13710.107422
1231.469766	0.085543	0.395619	13791.458984
1231.470664	0.085660	0.395619	13868.381836
1231.471600	0.085649	0.395619	13948.549805
1231.472537	0.085693	0.395619	14028.844727
1231.473467	0.085671	0.395619	14108.519531
1231.474372	0.085664	0.395619	14186.045898
1231.475325	0.085690	0.395619	14267.708008
1231.476278	0.085638	0.395619	14349.321289
1231.477186	0.085638	0.395619	14427.081055
1232.487637	1.067373	0.387752	476.048370
1232.488531	1.551354	0.387752	1862.958496
1232.489423	1.546392	0.387752	3242.339844
1232.490436	1.505544	0.387752	4767.456055
1232.491351	1.466437	0.387752	6109.245605
1232.492256	1.429109	0.387752	7402.589355
1232.493234	1.391243	0.387752	8763.224609
1232.494161	1.355240	0.387752	10019.532227
1232.495098	1.321128	0.387752	11257.429687
1232.495990	1.288568	0.387752	12406.832031
1232.496963	1.166473	0.387752	13541.810547
1232.497873	0.201101	0.387752	13724.812500
1232.498766	0.085613	0.387752	13801.264648
1232.499712	0.085649	0.387752	13882.289062
1232.500666	0.085690	0.387752	13964.037109
1232.501582	0.085719	0.387752	14042.555664
1232.502475	0.085730	0.387752	14119.112305
1232.503476	0.085704	0.387752	14204.902344
1232.504388	0.085701	0.387752	14283.061523
1232.505317	0.085701	0.387752	14362.677734
1232.506207	0.085807	0.387752	14439.045898
1233.548364	1.072020	0.387389	470.616852
1233.549363	1.556016	0.387389	2025.076416
1233.550299	1.540631	0.387389	3467.106934
1233.551218	1.502040	0.387389	4847.481445
1233.552173	1.462584	0.387389	6244.249023
1233.553095	1.424183	0.387389	7557.345703
1233.554000	1.388167	0.387389	8813.636719
1233.554896	1.354058	0.387389	10026.872070
1233.555868	1.319165	0.387389	11309.100586
1233.556780	1.285950	0.387389	12481.886719
1233.557694	1.168726	0.387389	13550.101562
1233.558616	0.200841	0.387389	13735.277344
1233.559579	0.085642	0.387389	13817.750977
1233.560505	0.085671	0.387389	13897.083008
1233.561416	0.085649	0.387389	13975.109375
1233.562365	0.085715	0.387389	14056.453125
1233.563290	0.085719	0.387389	14135.743164
1233.564198	0.085781	0.387389	14213.632812
1233.565083	0.085712	0.387389	14289.487305
1233.566060	0.085745	0.387389	14373.259766
1233.566983	0.085671	0.387389	14452.333984
1234.575943	1.063949	0.380231	460.689911
1234.576923	1.552141	0.380231	1981.788330
1234.577841	1.541726	0.380231	3397.092773
1234.578786	1.502922	0.380231	4817.354492
1234.579681	1.464207	0.380231	6127.819336
1234.580667	1.424692	0.380231	7532.565918
1234.581611	1.387130	0.380231	8842.016602
1234.582512	1.353160	0.380231	10061.213867
1234.583465	1.319370	0.380231	11318.573242
1234.584400	1.285181	0.380231	12520.216797
1234.585337	1.130878	0.380231	13579.849609
1234.586228	0.180714	0.380231	13740.866211
1234.587194	0.085664	0.380231	13823.618164
1234.588128	0.085664	0.380231	13903.627930
1234.589055	0.085664	0.380231	13983.038086
1234.589945	0.085712	0.380231	14059.321289
1234.590910	0.085690	0.380231	14142.011719
1234.591856	0.085649	0.380231	14223.036133
1234.592763	0.085723	0.380231	14300.786133
1234.593687	0.085657	0.380231	14379.932617
1234.594640	0.085664	0.380231	14461.570312
1235.638663	1.104558	0.387264	551.174500
1235.639604	1.554514	0.387264	2013.972412
1235.640522	1.540697	0.387264	3428.332520
1235.641422	1.503768	0.387264	4781.724121
1235.642374	1.464148	0.387264	6175.592773
1235.643306	1.425344	0.387264	7504.013672
1235.644219	1.389104	0.387264	8772.265625
1235.645115	1.354984	0.387264	9986.331055
1235.646114	1.318982	0.387264	11303.994141
1235.647039	1.285576	0.387264	12493.152344
1235.647945	1.163119	0.387264	13546.937500
1235.648857	0.197234	0.387264	13726.814453
1235.649824	0.085609	0.387264	13809.598633
1235.650742	0.085671	0.387264	13888.245117
1235.651638	0.085752	0.387264	13965.079102
1235.652595	0.085778	0.387264	14047.167969
1235.653528	0.085763	0.387264	14127.184570
1235.654440	0.085723	0.387264	14205.363281
1235.655329	0.085737	0.387264	14281.583984
1235.656314	0.085704	0.387264	14366.002930
1235.657215	0.085671	0.387264	14443.192383
1236.664679	1.104866	0.377765	502.713867
1236.665628	1.554415	0.377765	1977.853882
1236.666524	1.544227	0.377765	3361.481445
1236.667468	1.504797	0.377765	4782.010254
1236.668435	1.463859	0.377765	6197.561523
1236.669369	1.425754	0.377765	7529.216309
1236.670261	1.389551	0.377765	8768.695312
1236.671207	1.353834	0.377765	10049.422852
1236.672165	1.319169	0.377765	11313.186523
1236.673077	1.286316	0.377765	12486.306641
1236.674002	1.144717	0.377765	13545.169922
1236.674970	0.177228	0.377765	13716.726562
1236.675897	0.085584	0.377765	13796.062500
1236.676783	0.085657	0.377765	13871.954102
1236.677749	0.085792	0.377765	13954.829102
1236.678706	0.085701	0.377765	14036.844727
1236.679613	0.085708	0.377765	14114.582031
1236.680534	0.085638	0.377765	14193.455078
1236.681489	0.085664	0.377765	14275.264648
1236.682439	0.085741	0.377765	14356.718750
1236.683324	0.085708	0.377765	14432.570312
1237.728846	1.074558	0.381870	472.805542
1237.729835	1.554891	0.381870	2010.593140
1237.730757	1.541591	0.381870	3431.939697
1237.731661	1.504179	0.381870	4791.716797
1237.732619	1.464353	0.381870	6194.566895
1237.733533	1.425509	0.381870	7497.481934
1237.734479	1.388471	0.381870	8810.974609
1237.735374	1.354508	0.381870	10023.259766
1237.736353	1.319158	0.381870	11314.714844
1237.737270	1.285492	0.381870	12493.510742
1237.738210	1.152242	0.381870	13576.619141
1237.739108	0.189811	0.381870	13747.069336
1237.740074	0.085602	0.381870	13829.760742
1237.740984	0.085642	0.381870	13907.695312
1237.741882	0.085748	0.381870	13984.697266
1237.742828	0.085697	0.381870	14065.766602
1237.743752	0.085690	0.381870	14144.944336
1237.744681	0.085741	0.381870	14224.597656
1237.745570	0.085745	0.381870	14300.824219
1237.746559	0.085649	0.381870	14385.531250
1237.747460	0.085690	0.381870	14462.737305
1238.752862	1.084340	0.383997	484.699799
1238.753771	1.550317	0.383997	1893.938354
1238.754663	1.543502	0.383997	3270.742187
1238.755666	1.504120	0.383997	4779.374512
1238.756594	1.464847	0.383997	6138.752930
1238.757496	1.427732	0.383997	7426.567383
1238.758456	1.389935	0.383997	8760.905273
1238.759385	1.354083	0.383997	10018.848633
1238.760302	1.320930	0.383997	11230.141602
1238.761199	1.288257	0.383997	12385.708008
1238.762187	1.168652	0.383997	13540.335937
1238.763124	0.188416	0.383997	13716.880859
1238.764031	0.085675	0.383997	13794.587891
1238.764977	0.085690	0.383997	13875.650391
1238.765900	0.085741	0.383997	13954.789062
1238.766802	0.085675	0.383997	14032.068359
1238.767689	0.085679	0.383997	14108.065430
1238.768674	0.085660	0.383997	14192.441406
1238.769595	0.085693	0.383997	14271.365234
1238.770495	0.085675	0.383997	14348.472656
1238.771395	0.085730	0.383997	14425.629883
1239.819213	1.066728	0.382603	467.227081
1239.820149	1.550468	0.382603	1918.464722
1239.821106	1.542297	0.382603	3394.443359
1239.822043	1.503384	0.382603	4803.113770
1239.822954	1.464734	0.382603	6137.486328
1239.823901	1.426458	0.382603	7488.341797
1239.824857	1.388639	0.382603	8815.880859
1239.825795	1.353054	0.382603	10085.045898
1239.826704	1.320015	0.382603	11284.939453
1239.827670	1.285305	0.382603	12526.543945
1239.828613	1.100618	0.382603	13564.426758
1239.829559	0.158745	0.382603	13714.599609
1239.830452	0.085664	0.382603	13791.097656
1239.831419	0.085671	0.382603	13873.941406
1239.832371	0.085756	0.382603	13955.581055
1239.833262	0.085734	0.382603	14031.969727
1239.834186	0.085737	0.382603	14111.191406
1239.835137	0.085627	0.382603	14192.623047
1239.836065	0.085726	0.382603	14272.176758
1239.836971	0.085682	0.382603	14349.804687
1239.837942	0.085693	0.382603	14433.012695
1240.841546	1.067721	0.384299	466.594086
1240.842530	1.552877	0.384299	1994.625244
1240.843450	1.541990	0.384299	3413.255859
1240.844386	1.503541	0.384299	4820.570312
1240.845295	1.463833	0.384299	6151.194336
1240.846298	1.423707	0.384299	7579.172852
1240.847215	1.387328	0.384299	8851.352539
1240.848115	1.353153	0.384299	10069.190430
1240.849081	1.318693	0.384299	11343.047852
1240.850000	1.285122	0.384299	12524.075195
1240.850938	1.130922	0.384299	13584.879883
1240.851829	0.180487	0.384299	13745.694336
1240.852812	0.085605	0.384299	13829.844727
1240.853706	0.085624	0.384299	13906.392578
1240.854604	0.085803	0.384299	13983.444336
1240.855540	0.085759	0.384299	14063.714844
1240.856491	0.085723	0.384299	14145.237305
1240.857410	0.085668	0.384299	14223.965820
1240.858305	0.085701	0.384299	14300.667969
1240.859288	0.085671	0.384299	14384.882812
1240.860205	0.085781	0.384299	14463.543945
1241.908578	1.081919	0.383719	487.945435
1241.909515	1.550632	0.383719	1940.887817
1241.910414	1.541931	0.383719	3327.083984
1241.911370	1.502805	0.383719	4763.765625
1241.912297	1.463302	0.383719	6120.246582
1241.913211	1.426586	0.383719	7424.145996
1241.914107	1.390891	0.383719	8670.384766
1241.915094	1.353867	0.383719	10006.651367
1241.916026	1.320209	0.383719	11237.085937
1241.916945	1.286964	0.383719	12419.805664
1241.917889	1.168813	0.383719	13523.166016
1241.918835	0.191257	0.383719	13704.095703
1241.919762	0.085723	0.383719	13783.560547
1241.920657	0.085671	0.383719	13860.236328
1241.921617	0.085792	0.383719	13942.596680
1241.922525	0.085686	0.383719	14020.399414
1241.923433	0.085778	0.383719	14098.285156
1241.924325	0.085822	0.383719	14174.837891
1241.925312	0.085704	0.383719	14259.427734
1241.926237	0.085745	0.383719	14338.741211
1241.927142	0.085778	0.383719	14416.370117
1242.931043	1.075166	0.385165	480.599182
1242.931943	1.549065	0.385165	1874.757568
1242.932894	1.541393	0.385165	3340.622070
1242.933835	1.501593	0.385165	4753.621094
1242.934769	1.462434	0.385165	6119.534668
1242.935675	1.425300	0.385165	7410.856445
1242.936633	1.387566	0.385165	8740.144531
1242.937595	1.351447	0.385165	10040.236328
1242.938508	1.318129	0.385165	11243.687500
1242.939437	1.285129	0.385165	12437.572266
1242.940411	1.137063	0.385165	13545.071289
1242.941349	0.166893	0.385165	13701.617187
1242.942241	0.085627	0.385165	13777.997070
1242.943197	0.085719	0.385165	13859.944336
1242.944141	0.085719	0.385165	13940.863281
1242.945074	0.085697	0.385165	14020.818359
1242.945971	0.085657	0.385165	14097.652344
1242.946920	0.085635	0.385165	14178.919922
1242.947865	0.085723	0.385165	14259.927734
1242.948772	0.085726	0.385165	14337.681641
1242.949693	0.085649	0.385165	14416.564453
1243.997901	1.080754	0.379961	473.370422
1243.998898	1.552170	0.379961	2020.884277
1243.999812	1.538701	0.379961	3427.257324
1244.000707	1.501706	0.379961	4771.284668
1244.001676	1.462602	0.379961	6188.546387
1244.002596	1.424458	0.379961	7499.047852
1244.003509	1.388221	0.379961	8766.494141
1244.004407	1.353904	0.379961	9982.299805
1244.005386	1.318583	0.379961	11273.192383
1244.006304	1.285660	0.379961	12453.428711
1244.007207	1.192427	0.379961	13530.190430
1244.008145	0.219840	0.379961	13736.400391
1244.009079	0.085613	0.379961	13816.362305
1244.009992	0.085693	0.379961	13894.600586
1244.010887	0.085723	0.379961	13971.322266
1244.011855	0.085774	0.379961	14054.351562
1244.012784	0.085675	0.379961	14133.943359
1244.013679	0.085767	0.379961	14210.704102
1244.014573	0.085818	0.379961	14287.424805
1244.015541	0.085679	0.379961	14370.361328
1244.016456	0.085741	0.379961	14448.814453
1245.020413	1.116284	0.388646	532.467529
1245.021347	1.551962	0.388646	1981.999756
1245.022257	1.540378	0.388646	3383.744141
1245.023201	1.501483	0.388646	4801.144531
1245.024162	1.460673	0.388646	6204.851074
1245.025116	1.422158	0.388646	7561.589844
1245.026015	1.386090	0.388646	8807.684570
1245.026952	1.350505	0.388646	10073.108398
1245.027914	1.315946	0.388646	11339.048828
1245.028850	1.282394	0.388646	12539.369141
1245.029753	1.110542	0.388646	13542.188477
1245.030720	0.158027	0.388646	13695.000977
1245.031671	0.085591	0.388646	13776.397461
1245.032579	0.085778	0.388646	13854.283203
1245.033501	0.085682	0.388646	13933.282227
1245.034461	0.085697	0.388646	14015.551758
1245.035390	0.085759	0.388646	14095.221680
1245.036285	0.085748	0.388646	14171.966797
1245.037247	0.085756	0.388646	14254.463867
1245.038179	0.085734	0.388646	14334.367187
1245.039095	0.085715	0.388646	14412.882812
1246.086646	1.085786	0.380996	513.576904
1246.087553	1.550237	0.380996	1919.641724
1246.088498	1.540964	0.380996	3375.853027
1246.089420	1.502282	0.380996	4760.956543
1246.090356	1.462833	0.380996	6130.168457
1246.091264	1.425608	0.380996	7424.620117
1246.092258	1.386639	0.380996	8802.939453
1246.093175	1.351945	0.380996	10042.672852
1246.094075	1.319202	0.380996	11229.954102
1246.095012	1.286096	0.380996	12435.026367
1246.095963	1.156003	0.380996	13534.385742
1246.096877	0.192876	0.380996	13710.674805
1246.097763	0.085598	0.380996	13786.514648
1246.098722	0.085690	0.380996	13868.691406
1246.099641	0.085730	0.380996	13947.477539
1246.100569	0.085737	0.380996	14027.041992
1246.101458	0.085763	0.380996	14103.285156
1246.102449	0.085770	0.380996	14188.283203
1246.103362	0.085726	0.380996	14266.551758
1246.104251	0.085789	0.380996	14342.817383
1246.105211	0.085825	0.380996	14425.209961
1247.110917	1.104254	0.385794	545.501526
1247.111854	1.552819	0.385794	2000.492432
1247.112771	1.539965	0.385794	3412.639893
1247.113664	1.503234	0.385794	4755.027344
1247.114654	1.461445	0.385794	6201.858398
1247.115585	1.423476	0.385794	7527.115234
1247.116490	1.387467	0.385794	8782.773437
1247.117455	1.351912	0.385794	10087.368164
1247.118383	1.317685	0.385794	11310.180664
1247.119288	1.285030	0.385794	12473.132812
1247.120186	1.175457	0.385794	13528.693359
1247.121152	0.178132	0.385794	13700.769531
1247.122069	0.085624	0.385794	13779.286133
1247.122980	0.085734	0.385794	13857.389648
1247.123870	0.085737	0.385794	13933.696289
1247.124861	0.085756	0.385794	14018.679687
1247.125784	0.085734	0.385794	14097.811523
1247.126689	0.085770	0.385794	14175.433594
1247.127644	0.085759	0.385794	14257.333984
1247.128561	0.085748	0.385794	14335.964844
1247.129465	0.085708	0.385794	14413.445312
1248.175191	1.064041	0.385363	463.921661
1248.176139	1.549285	0.385363	1932.643555
1248.177083	1.540818	0.385363	3387.175781
1248.178014	1.502439	0.385363	4785.946289
1248.178907	1.464100	0.385363	6093.387695
1248.179864	1.425256	0.385363	7457.357910
